File: 20mV-Mxene3_2.txt
Potential applied (V);Time (s);WE(1).Current (A);Scan;Index;Q+;Q-;Current range;Overload
-0.0975037;10.2933;-0.000215393;1;1;0.00526433;-0.00465483;10 mA;
-0.0315857;13.5892;-3.37769e-05;1;28;0.00526433;-0.00465483;10 µA;
0.0343323;16.8851;1.87683e-05;1;55;0.00526433;-0.00465483;10 µA;
0.10025;20.181;4.71649e-05;1;82;0.00526433;-0.00465483;10 µA;
0.166168;23.4769;6.68335e-05;1;109;0.00526433;-0.00465483;100 µA;
0.232086;26.7728;8.34656e-05;1;136;0.00526433;-0.00465483;100 µA;
0.298004;30.0687;9.86938e-05;1;163;0.00526433;-0.00465483;100 µA;
0.363922;33.3646;0.000114746;1;190;0.00526433;-0.00465483;100 µA;
0.42984;36.6605;0.000129059;1;217;0.00526433;-0.00465483;100 µA;
0.495758;39.9563;0.00013382;1;244;0.00526433;-0.00465483;100 µA;
0.561676;43.2522;0.000130798;1;271;0.00526433;-0.00465483;100 µA;
0.627594;46.5481;0.000125061;1;298;0.00526433;-0.00465483;100 µA;
0.693512;49.844;0.000118622;1;325;0.00526433;-0.00465483;100 µA;
0.75943;53.1399;0.000112885;1;352;0.00526433;-0.00465483;100 µA;
0.825348;56.4358;0.000110443;1;379;0.00526433;-0.00465483;100 µA;
0.813141;59.7317;4.21326e-05;1;406;0.00526433;-0.00465483;100 µA;
0.747223;63.0276;-5.16541e-06;1;433;0.00526433;-0.00465483;1 µA;
0.681305;66.3235;-2.66174e-05;1;460;0.00526433;-0.00465483;10 µA;
0.615387;69.6194;-3.89526e-05;1;487;0.00526433;-0.00465483;10 µA;
0.549469;72.9152;-4.9173e-05;1;514;0.00526433;-0.00465483;10 µA;
0.483551;76.2111;-6.06384e-05;1;541;0.00526433;-0.00465483;100 µA;
0.417633;79.507;-7.52563e-05;1;568;0.00526433;-0.00465483;100 µA;
0.351715;82.8029;-9.47266e-05;1;595;0.00526433;-0.00465483;100 µA;
0.285797;86.0988;-0.000115906;1;622;0.00526433;-0.00465483;100 µA;
0.219879;89.3947;-0.00013208;1;649;0.00526433;-0.00465483;100 µA;
0.153961;92.6906;-0.000141174;1;676;0.00526433;-0.00465483;100 µA;
0.0880432;95.9865;-0.000144073;1;703;0.00526433;-0.00465483;100 µA;
0.0221252;99.2824;-0.00014328;1;730;0.00526433;-0.00465483;100 µA;
-0.0437927;102.578;-0.000142334;1;757;0.00526433;-0.00465483;100 µA;
-0.0901794;105.874;-0.000114624;1;784;0.00526433;-0.00465483;100 µA;
-0.0242615;109.17;-2.32941e-05;1;811;0.00526433;-0.00465483;10 µA;
0.0416565;112.466;2.08801e-05;1;838;0.00526433;-0.00465483;10 µA;
0.107574;115.762;4.74365e-05;1;865;0.00526433;-0.00465483;10 µA;
0.173492;119.058;6.71692e-05;1;892;0.00526433;-0.00465483;100 µA;
0.23941;122.354;8.45337e-05;1;919;0.00526433;-0.00465483;100 µA;
0.305328;125.649;0.000100311;2;946;0.00432198;-0.00434468;100 µA;
0.371246;128.945;0.000116364;2;973;0.00432198;-0.00434468;100 µA;
0.437164;132.241;0.000129517;2;1000;0.00432198;-0.00434468;100 µA;
0.503082;135.537;0.000132263;2;1027;0.00432198;-0.00434468;100 µA;
0.569;138.833;0.000128021;2;1054;0.00432198;-0.00434468;100 µA;
0.634918;142.129;0.000121613;2;1081;0.00432198;-0.00434468;100 µA;
0.700836;145.425;0.000114899;2;1108;0.00432198;-0.00434468;100 µA;
0.766754;148.721;0.000109283;2;1135;0.00432198;-0.00434468;100 µA;
0.832672;152.017;0.000107635;2;1162;0.00432198;-0.00434468;100 µA;
0.805817;155.312;3.14087e-05;2;1189;0.00432198;-0.00434468;10 µA;
0.739899;158.608;-1.05774e-05;2;1216;0.00432198;-0.00434468;10 µA;
0.673981;161.904;-2.95898e-05;2;1243;0.00432198;-0.00434468;10 µA;
0.608063;165.2;-4.09332e-05;2;1270;0.00432198;-0.00434468;10 µA;
0.542145;168.496;-5.09644e-05;2;1297;0.00432198;-0.00434468;10 µA;
0.476227;171.792;-6.27136e-05;2;1324;0.00432198;-0.00434468;100 µA;
0.410309;175.088;-7.79114e-05;2;1351;0.00432198;-0.00434468;100 µA;
0.344391;178.384;-9.80835e-05;2;1378;0.00432198;-0.00434468;100 µA;
0.278473;181.68;-0.000119263;2;1405;0.00432198;-0.00434468;100 µA;
0.212555;184.976;-0.000134674;2;1432;0.00432198;-0.00434468;100 µA;
0.146637;188.271;-0.000142944;2;1459;0.00432198;-0.00434468;100 µA;
0.080719;191.567;-0.000145081;2;1486;0.00432198;-0.00434468;100 µA;
0.014801;194.863;-0.000143921;2;1513;0.00432198;-0.00434468;100 µA;
-0.0511169;198.159;-0.000143127;2;1540;0.00432198;-0.00434468;100 µA;
-0.0828552;201.455;-9.85718e-05;2;1567;0.00432198;-0.00434468;100 µA;
-0.0169373;204.751;-1.57898e-05;2;1594;0.00432198;-0.00434468;10 µA;
0.0489807;208.047;2.51129e-05;2;1621;0.00432198;-0.00434468;10 µA;
0.114899;211.343;5.02594e-05;2;1648;0.00432198;-0.00434468;10 µA;
0.180817;214.639;6.9458e-05;2;1675;0.00432198;-0.00434468;100 µA;
0.246735;217.934;8.66394e-05;2;1702;0.00432198;-0.00434468;100 µA;
0.312653;221.23;0.000102448;3;1729;0.004327;-0.00435544;100 µA;
0.378571;224.526;0.000118561;3;1756;0.004327;-0.00435544;100 µA;
0.444489;227.822;0.000130707;3;1783;0.004327;-0.00435544;100 µA;
0.510406;231.118;0.000132263;3;1810;0.004327;-0.00435544;100 µA;
0.576324;234.414;0.000127625;3;1837;0.004327;-0.00435544;100 µA;
0.642242;237.71;0.000121002;3;1864;0.004327;-0.00435544;100 µA;
0.70816;241.006;0.000114227;3;1891;0.004327;-0.00435544;100 µA;
0.774078;244.302;0.000108704;3;1918;0.004327;-0.00435544;100 µA;
0.839996;247.597;0.000107574;3;1945;0.004327;-0.00435544;100 µA;
0.798492;250.893;2.40051e-05;3;1972;0.004327;-0.00435544;10 µA;
0.732574;254.189;-1.38275e-05;3;1999;0.004327;-0.00435544;10 µA;
0.666656;257.485;-3.12805e-05;3;2026;0.004327;-0.00435544;10 µA;
0.600739;260.781;-4.22028e-05;3;2053;0.004327;-0.00435544;10 µA;
0.534821;264.077;-5.23132e-05;3;2080;0.004327;-0.00435544;10 µA;
0.468903;267.373;-6.43616e-05;3;2107;0.004327;-0.00435544;100 µA;
0.402985;270.669;-8.02002e-05;3;2134;0.004327;-0.00435544;100 µA;
0.337067;273.965;-0.000100891;3;2161;0.004327;-0.00435544;100 µA;
0.271149;277.26;-0.000121796;3;2188;0.004327;-0.00435544;100 µA;
0.205231;280.556;-0.000136414;3;2215;0.004327;-0.00435544;100 µA;
0.139313;283.852;-0.00014386;3;2242;0.004327;-0.00435544;100 µA;
0.0733948;287.148;-0.000145325;3;2269;0.004327;-0.00435544;100 µA;
0.00747681;290.444;-0.000144012;3;2296;0.004327;-0.00435544;100 µA;
-0.0584412;293.74;-0.000143372;3;2323;0.004327;-0.00435544;100 µA;
-0.075531;297.036;-8.46863e-05;3;2350;0.004327;-0.00435544;100 µA;
-0.00961304;300.332;-9.51233e-06;3;2377;0.004327;-0.00435544;10 µA;
0.0563049;303.628;2.8714e-05;3;2404;0.004327;-0.00435544;10 µA;
0.122223;306.923;5.27924e-05;3;2431;0.004327;-0.00435544;10 µA;
0.188141;310.219;7.16553e-05;3;2458;0.004327;-0.00435544;100 µA;
0.254059;313.515;8.86841e-05;3;2485;0.004327;-0.00435544;100 µA;
0.319977;316.811;0.000104462;4;2512;0.00433307;-0.004363;100 µA;
0.385895;320.107;0.000120636;4;2539;0.00433307;-0.004363;100 µA;
0.451813;323.403;0.000131775;4;2566;0.00433307;-0.004363;100 µA;
0.517731;326.699;0.000132172;4;2593;0.00433307;-0.004363;100 µA;
0.583649;329.995;0.000127106;4;2620;0.00433307;-0.004363;100 µA;
0.649567;333.291;0.000120331;4;2647;0.00433307;-0.004363;100 µA;
0.715485;336.586;0.000113495;4;2674;0.00433307;-0.004363;100 µA;
0.781403;339.882;0.000108124;4;2701;0.00433307;-0.004363;100 µA;
0.847321;343.178;0.000107727;4;2728;0.00433307;-0.004363;100 µA;
0.791168;346.474;1.75537e-05;4;2755;0.00433307;-0.004363;10 µA;
0.72525;349.77;-1.66656e-05;4;2782;0.00433307;-0.004363;10 µA;
0.659332;353.066;-3.27881e-05;4;2809;0.00433307;-0.004363;10 µA;
0.593414;356.362;-4.33807e-05;4;2836;0.00433307;-0.004363;10 µA;
0.527496;359.658;-5.35858e-05;4;2863;0.00433307;-0.004363;10 µA;
0.461578;362.954;-6.5979e-05;4;2890;0.00433307;-0.004363;100 µA;
0.39566;366.249;-8.24585e-05;4;2917;0.00433307;-0.004363;100 µA;
0.329742;369.545;-0.000103638;4;2944;0.00433307;-0.004363;100 µA;
0.263824;372.841;-0.000124115;4;2971;0.00433307;-0.004363;100 µA;
0.197906;376.137;-0.000137909;4;2998;0.00433307;-0.004363;100 µA;
0.131989;379.433;-0.000144623;4;3025;0.00433307;-0.004363;100 µA;
0.0660706;382.729;-0.000145538;4;3052;0.00433307;-0.004363;100 µA;
0.000152588;386.025;-0.000144073;4;3079;0.00433307;-0.004363;100 µA;
-0.0657654;389.321;-0.000143585;4;3106;0.00433307;-0.004363;100 µA;
-0.0682068;392.617;-7.27234e-05;4;3133;0.00433307;-0.004363;100 µA;
-0.00228882;395.912;-3.70575e-06;4;3160;0.00433307;-0.004363;10 µA;
0.0636292;399.208;3.21625e-05;4;3187;0.00433307;-0.004363;10 µA;
0.129547;402.504;5.53253e-05;4;3214;0.00433307;-0.004363;10 µA;
0.195465;405.8;7.38525e-05;4;3241;0.00433307;-0.004363;100 µA;
0.261383;409.096;9.07898e-05;4;3268;0.00433307;-0.004363;100 µA;
0.327301;412.392;0.000106567;5;3295;0.00433998;-0.00437226;100 µA;
0.393219;415.688;0.000122681;5;3322;0.00433998;-0.00437226;100 µA;
0.459137;418.984;0.000132629;5;3349;0.00433998;-0.00437226;100 µA;
0.525055;422.28;0.000131989;5;3376;0.00433998;-0.00437226;100 µA;
0.590973;425.575;0.000126526;5;3403;0.00433998;-0.00437226;100 µA;
0.656891;428.871;0.000119568;5;3430;0.00433998;-0.00437226;100 µA;
0.722809;432.167;0.000112732;5;3457;0.00433998;-0.00437226;100 µA;
0.788727;435.463;0.000107574;5;3484;0.00433998;-0.00437226;100 µA;
0.849762;438.759;9.8999e-05;5;3511;0.00433998;-0.00437226;100 µA;
0.783844;442.055;1.17065e-05;5;3538;0.00433998;-0.00437226;10 µA;
0.717926;445.351;-1.9223e-05;5;3565;0.00433998;-0.00437226;10 µA;
0.652008;448.647;-3.41858e-05;5;3592;0.00433998;-0.00437226;10 µA;
0.58609;451.943;-4.453125E-05;5;3619;0.00433998;-0.00437226;10 µA;
0.520172;455.238;-5.4892e-05;5;3646;0.00433998;-0.00437226;10 µA;
0.454254;458.534;-6.7749e-05;5;3673;0.00433998;-0.00437226;100 µA;
0.388336;461.83;-8.48389e-05;5;3700;0.00433998;-0.00437226;100 µA;
0.322418;465.126;-0.000106476;5;3727;0.00433998;-0.00437226;100 µA;
0.2565;468.422;-0.000126465;5;3754;0.00433998;-0.00437226;100 µA;
0.190582;471.718;-0.000139404;5;3781;0.00433998;-0.00437226;100 µA;
0.124664;475.014;-0.000145355;5;3808;0.00433998;-0.00437226;100 µA;
0.0587463;478.31;-0.000145752;5;3835;0.00433998;-0.00437226;100 µA;
-0.00717163;481.606;-0.000144379;5;3862;0.00433998;-0.00437226;100 µA;
-0.0730896;484.901;-0.000144043;5;3889;0.00433998;-0.00437226;100 µA;
-0.0608826;488.197;-6.12183e-05;5;3916;0.00433998;-0.00437226;100 µA;
0.0050354;491.493;1.94305e-06;5;3943;0.00433998;-0.00437226;10 µA;
0.0709534;494.789;3.55103e-05;5;3970;0.00433998;-0.00437226;10 µA;
0.136871;498.085;5.78796e-05;5;3997;0.00433998;-0.00437226;10 µA;
0.202789;501.381;7.60803e-05;5;4024;0.00433998;-0.00437226;100 µA;
0.268707;504.677;9.28955e-05;5;4051;0.00433998;-0.00437226;100 µA;
0.300446;506.264;0.000100464;5;4064;0.00433998;-0.00437226;100 µA;