File: 30mV-Mxene3_2.txt
Potential applied (V);Time (s);WE(1).Current (A);Scan;Index;Q+;Q-;Current range;Overload
-0.0975037;9.48794;-0.000233307;1;1;0.00465329;-0.00405569;10 mA;
-0.0291443;11.7666;-4.53705e-05;1;29;0.00465329;-0.00405569;100 µA;
0.0392151;14.0452;1.7926e-05;1;57;0.00465329;-0.00405569;10 µA;
0.107574;16.3239;5.68878e-05;1;85;0.00465329;-0.00405569;10 µA;
0.175934;18.6025;8.55713e-05;1;113;0.00465329;-0.00405569;100 µA;
0.244293;20.8811;0.000109497;1;141;0.00465329;-0.00405569;100 µA;
0.312653;23.1598;0.000131012;1;169;0.00465329;-0.00405569;100 µA;
0.381012;25.4384;0.000152924;1;197;0.00465329;-0.00405569;100 µA;
0.449371;27.7171;0.000172211;1;225;0.00465329;-0.00405569;100 µA;
0.517731;29.9957;0.000180817;1;253;0.00465329;-0.00405569;100 µA;
0.58609;32.2743;0.000181;1;281;0.00465329;-0.00405569;100 µA;
0.654449;34.553;0.000177185;1;309;0.00465329;-0.00405569;100 µA;
0.722809;36.8316;0.000171417;1;337;0.00465329;-0.00405569;100 µA;
0.791168;39.1103;0.000165497;1;365;0.00465329;-0.00405569;100 µA;
0.844879;41.3889;0.000138977;1;393;0.00465329;-0.00405569;100 µA;
0.77652;43.6675;3.77411e-05;1;421;0.00465329;-0.00405569;10 µA;
0.70816;45.9462;-9.71985e-06;1;449;0.00465329;-0.00405569;10 µA;
0.639801;48.2248;-3.73871e-05;1;477;0.00465329;-0.00405569;10 µA;
0.571442;50.5035;-5.64972e-05;1;505;0.00465329;-0.00405569;10 µA;
0.503082;52.7821;-7.31812e-05;1;533;0.00465329;-0.00405569;100 µA;
0.434723;55.0607;-9.13086e-05;1;561;0.00465329;-0.00405569;100 µA;
0.366364;57.3394;-0.000113586;1;589;0.00465329;-0.00405569;100 µA;
0.298004;59.618;-0.000139465;1;617;0.00465329;-0.00405569;100 µA;
0.229645;61.8967;-0.00016272;1;645;0.00465329;-0.00405569;100 µA;
0.161285;64.1753;-0.000179321;1;673;0.00465329;-0.00405569;100 µA;
0.092926;66.4539;-0.000189026;1;701;0.00465329;-0.00405569;100 µA;
0.0245667;68.7326;-0.000193359;1;729;0.00465329;-0.00405569;100 µA;
-0.0437927;71.0112;-0.000195435;1;757;0.00465329;-0.00405569;100 µA;
-0.087738;73.2899;-0.000159149;1;785;0.00465329;-0.00405569;100 µA;
-0.0193787;75.5685;-5.1178e-05;1;813;0.00465329;-0.00405569;100 µA;
0.0489807;77.8471;8.88672e-06;1;841;0.00465329;-0.00405569;10 µA;
0.11734;80.1258;4.9176e-05;1;869;0.00465329;-0.00405569;10 µA;
0.185699;82.4044;7.98645e-05;1;897;0.00465329;-0.00405569;100 µA;
0.254059;84.6831;0.00010614;1;925;0.00465329;-0.00405569;100 µA;
0.322418;86.9617;0.000129364;2;953;0.00381677;-0.00380536;100 µA;
0.390778;89.2403;0.000151947;2;981;0.00381677;-0.00380536;100 µA;
0.459137;91.519;0.000169861;2;1009;0.00381677;-0.00380536;100 µA;
0.527496;93.7976;0.000176208;2;1037;0.00381677;-0.00380536;100 µA;
0.595856;96.0763;0.000174652;2;1065;0.00381677;-0.00380536;100 µA;
0.664215;98.3549;0.000169525;2;1093;0.00381677;-0.00380536;100 µA;
0.732574;100.634;0.000162933;2;1121;0.00381677;-0.00380536;100 µA;
0.800934;102.912;0.000156982;2;1149;0.00381677;-0.00380536;100 µA;
0.835114;105.191;0.000109192;2;1177;0.00381677;-0.00380536;100 µA;
0.766754;107.469;2.35992e-05;2;1205;0.00381677;-0.00380536;10 µA;
0.698395;109.748;-1.82617e-05;2;1233;0.00381677;-0.00380536;10 µA;
0.630035;112.027;-4.29321e-05;2;1261;0.00381677;-0.00380536;10 µA;
0.561676;114.305;-6.05408e-05;2;1289;0.00381677;-0.00380536;10 µA;
0.493317;116.584;-7.67212e-05;2;1317;0.00381677;-0.00380536;100 µA;
0.424957;118.863;-9.50012e-05;2;1345;0.00381677;-0.00380536;100 µA;
0.356598;121.141;-0.00011795;2;1373;0.00381677;-0.00380536;100 µA;
0.288239;123.42;-0.00014389;2;1401;0.00381677;-0.00380536;100 µA;
0.219879;125.699;-0.000166382;2;1429;0.00381677;-0.00380536;100 µA;
0.15152;127.977;-0.000182068;2;1457;0.00381677;-0.00380536;100 µA;
0.0831604;130.256;-0.000190948;2;1485;0.00381677;-0.00380536;100 µA;
0.014801;132.534;-0.000194672;2;1513;0.00381677;-0.00380536;100 µA;
-0.0535583;134.813;-0.000196594;2;1541;0.00381677;-0.00380536;100 µA;
-0.0779724;137.092;-0.000137695;2;1569;0.00381677;-0.00380536;100 µA;
-0.00961304;139.37;-4.0921e-05;2;1597;0.00381677;-0.00380536;100 µA;
0.0587463;141.649;1.55365e-05;2;1625;0.00381677;-0.00380536;10 µA;
0.127106;143.928;5.45654e-05;2;1653;0.00381677;-0.00380536;10 µA;
0.195465;146.206;8.45642e-05;2;1681;0.00381677;-0.00380536;100 µA;
0.263824;148.485;0.000110474;2;1709;0.00381677;-0.00380536;100 µA;
0.332184;150.764;0.000133698;3;1737;0.00381977;-0.00383412;100 µA;
0.400543;153.042;0.00015625;3;1765;0.00381977;-0.00383412;100 µA;
0.468903;155.321;0.000172577;3;1793;0.00381977;-0.00383412;100 µA;
0.537262;157.6;0.000176819;3;1821;0.00381977;-0.00383412;100 µA;
0.605621;159.878;0.00017395;3;1849;0.00381977;-0.00383412;100 µA;
0.673981;162.157;0.000167969;3;1877;0.00381977;-0.00383412;100 µA;
0.74234;164.435;0.000161133;3;1905;0.00381977;-0.00383412;100 µA;
0.810699;166.714;0.00015567;3;1933;0.00381977;-0.00383412;100 µA;
0.825348;168.993;8.96606e-05;3;1961;0.00381977;-0.00383412;100 µA;
0.756989;171.271;1.38519e-05;3;1989;0.00381977;-0.00383412;10 µA;
0.688629;173.55;-2.41333e-05;3;2017;0.00381977;-0.00383412;10 µA;
0.62027;175.829;-4.68353e-05;3;2045;0.00381977;-0.00383412;10 µA;
0.55191;178.107;-6.37512e-05;3;2073;0.00381977;-0.00383412;100 µA;
0.483551;180.386;-7.99561e-05;3;2101;0.00381977;-0.00383412;100 µA;
0.415192;182.665;-9.88464e-05;3;2129;0.00381977;-0.00383412;100 µA;
0.346832;184.943;-0.000122742;3;2157;0.00381977;-0.00383412;100 µA;
0.278473;187.222;-0.000148987;3;2185;0.00381977;-0.00383412;100 µA;
0.210114;189.5;-0.000170776;3;2213;0.00381977;-0.00383412;100 µA;
0.141754;191.779;-0.000185303;3;2241;0.00381977;-0.00383412;100 µA;
0.0733948;194.058;-0.000192993;3;2269;0.00381977;-0.00383412;100 µA;
0.0050354;196.336;-0.000195892;3;2297;0.00381977;-0.00383412;100 µA;
-0.063324;198.615;-0.000197693;3;2325;0.00381977;-0.00383412;100 µA;
-0.0682068;200.894;-0.000118561;3;2353;0.00381977;-0.00383412;100 µA;
0.000152588;203.172;-2.96906e-05;3;2381;0.00381977;-0.00383412;10 µA;
0.068512;205.451;2.32056e-05;3;2409;0.00381977;-0.00383412;10 µA;
0.136871;207.73;6.00067e-05;3;2437;0.00381977;-0.00383412;10 µA;
0.205231;210.008;8.90503e-05;3;2465;0.00381977;-0.00383412;100 µA;
0.27359;212.287;0.000114441;3;2493;0.00381977;-0.00383412;100 µA;
0.341949;214.566;0.000137451;4;2521;0.00382424;-0.00383993;100 µA;
0.410309;216.844;0.000159668;4;2549;0.00382424;-0.00383993;100 µA;
0.478668;219.123;0.000174286;4;2577;0.00382424;-0.00383993;100 µA;
0.547028;221.401;0.000176941;4;2605;0.00382424;-0.00383993;100 µA;
0.615387;223.68;0.000173431;4;2633;0.00382424;-0.00383993;100 µA;
0.683746;225.959;0.000167236;4;2661;0.00382424;-0.00383993;100 µA;
0.752106;228.237;0.000160309;4;2689;0.00382424;-0.00383993;100 µA;
0.820465;230.516;0.00015509;4;2717;0.00382424;-0.00383993;100 µA;
0.815582;232.795;7.39441e-05;4;2745;0.00382424;-0.00383993;100 µA;
0.747223;235.073;6.45447e-06;4;2773;0.00382424;-0.00383993;10 µA;
0.678864;237.352;-2.83356e-05;4;2801;0.00382424;-0.00383993;10 µA;
0.610504;239.631;-4.9649e-05;4;2829;0.00382424;-0.00383993;10 µA;
0.542145;241.909;-6.61316e-05;4;2857;0.00382424;-0.00383993;100 µA;
0.473785;244.188;-8.26111e-05;4;2885;0.00382424;-0.00383993;100 µA;
0.405426;246.466;-0.000102173;4;2913;0.00382424;-0.00383993;100 µA;
0.337067;248.745;-0.000126801;4;2941;0.00382424;-0.00383993;100 µA;
0.268707;251.024;-0.000152893;4;2969;0.00382424;-0.00383993;100 µA;
0.200348;253.302;-0.000173645;4;2997;0.00382424;-0.00383993;100 µA;
0.131989;255.581;-0.000187164;4;3025;0.00382424;-0.00383993;100 µA;
0.0636292;257.86;-0.000193848;4;3053;0.00382424;-0.00383993;100 µA;
-0.00473022;260.138;-0.000196442;4;3081;0.00382424;-0.00383993;100 µA;
-0.0730896;262.417;-0.000198181;4;3109;0.00382424;-0.00383993;100 µA;
-0.0584412;264.696;-0.000101654;4;3137;0.00382424;-0.00383993;100 µA;
0.00991821;266.974;-2.0285e-05;4;3165;0.00382424;-0.00383993;10 µA;
0.0782776;269.253;2.93915e-05;4;3193;0.00382424;-0.00383993;10 µA;
0.146637;271.532;6.45447e-05;4;3221;0.00382424;-0.00383993;100 µA;
0.214996;273.81;9.30481e-05;4;3249;0.00382424;-0.00383993;100 µA;
0.283356;276.089;0.000118011;4;3277;0.00382424;-0.00383993;100 µA;
0.351715;278.367;0.000140839;5;3305;0.00382609;-0.0038439;100 µA;
0.420074;280.646;0.00016275;5;3333;0.00382609;-0.0038439;100 µA;
0.488434;282.925;0.000175568;5;3361;0.00382609;-0.0038439;100 µA;
0.556793;285.203;0.00017688;5;3389;0.00382609;-0.0038439;100 µA;
0.625153;287.482;0.000172821;5;3417;0.00382609;-0.0038439;100 µA;
0.693512;289.761;0.00016626;5;3445;0.00382609;-0.0038439;100 µA;
0.761871;292.039;0.000159302;5;3473;0.00382609;-0.0038439;100 µA;
0.830231;294.318;0.00015451;5;3501;0.00382609;-0.0038439;100 µA;
0.805817;296.597;6.03027e-05;5;3529;0.00382609;-0.0038439;100 µA;
0.737457;298.875;-1.39771e-07;5;3557;0.00382609;-0.0038439;10 µA;
0.669098;301.154;-3.2132e-05;5;3585;0.00382609;-0.0038439;10 µA;
0.600739;303.432;-5.22736e-05;5;3613;0.00382609;-0.0038439;10 µA;
0.532379;305.711;-6.84814e-05;5;3641;0.00382609;-0.0038439;100 µA;
0.46402;307.99;-8.52051e-05;5;3669;0.00382609;-0.0038439;100 µA;
0.39566;310.268;-0.000105469;5;3697;0.00382609;-0.0038439;100 µA;
0.327301;312.547;-0.000130798;5;3725;0.00382609;-0.0038439;100 µA;
0.258942;314.826;-0.000156525;5;3753;0.00382609;-0.0038439;100 µA;
0.190582;317.104;-0.0001763;5;3781;0.00382609;-0.0038439;100 µA;
0.122223;319.383;-0.000188782;5;3809;0.00382609;-0.0038439;100 µA;
0.0538635;321.662;-0.000194611;5;3837;0.00382609;-0.0038439;100 µA;
-0.0144958;323.94;-0.000196747;5;3865;0.00382609;-0.0038439;100 µA;
-0.0828552;326.219;-0.00019873;5;3893;0.00382609;-0.0038439;100 µA;
-0.0486755;328.498;-8.65784e-05;5;3921;0.00382609;-0.0038439;100 µA;
0.0196838;330.776;-1.15875e-05;5;3949;0.00382609;-0.0038439;10 µA;
0.0880432;333.055;3.5257e-05;5;3977;0.00382609;-0.0038439;10 µA;
0.156403;335.333;6.90308e-05;5;4005;0.00382609;-0.0038439;100 µA;
0.224762;337.612;9.69849e-05;5;4033;0.00382609;-0.0038439;100 µA;
0.293121;339.891;0.00012149;5;4061;0.00382609;-0.0038439;100 µA;
0.300446;340.135;0.000123993;5;4064;0.00382609;-0.0038439;100 µA;